# XDI/1.0  Demeter/0.9.13
# Demeter::Data=HASH(0xae7b69c)
# Athena.element:              As
# Athena.edge:                 k
# Athena.e0:                   11867.07
# Athena.eshift:               1.3
# Athena.rbkg:                 1.0
# Athena.standard:             None
# Athena.bkg_kweight:          2
# Athena.edge_step:            0.0034826
# Athena.fixed_step:           no
# Athena.flatten:              yes
# Athena.pre_edge_range:       -150.000 -30.000
# Athena.pre_edge_line:        -0.004289 + 3.64869e-007 * energy
# Athena.normalization_range:  150.000 208.966
# Athena.post_edge_polynomial: 0.045165 - 3.50902e-006 * en + 0 * en^2
# Athena.spline_range_energy:  0.000 308.952
# Athena.clamps:               0/24
# Athena.spline_range_k:       0.000 9.005
# Athena.kweight:              2
# Athena.window:               hanning
# Athena.phase_correction:     0
# Athena.k_range:              3.000 7.005
# Athena.dk:                   1
# Athena.r_range:              1 3
# Athena.dr:                   0.0
# Athena.window:               hanning
# Athena.plot_multiplier:      1
# Athena.y_offset:             0
# ///
#------------------------
#   e         norm        nbkg        flat        fbkg        nder        nsec
  11772.380       0.10610602E-02   0.10610448E-02   0.10610486E-02   0.10610448E-02  -0.86115907E-04   0.24539822E-05
  11777.380       0.63048065E-03   0.63046992E-03   0.63047379E-03   0.63046992E-03  -0.73845996E-04   0.27101139E-05
  11782.379       0.32267407E-03   0.32266669E-03   0.32267056E-03   0.32266669E-03  -0.59017479E-04   0.67609271E-06
  11787.379       0.40364879E-04   0.40360564E-04   0.40364440E-04   0.40360564E-04  -0.67085745E-04   0.34618149E-06
  11792.378      -0.34811629E-03  -0.34811639E-03  -0.34811251E-03  -0.34811639E-03  -0.55556010E-04   0.40207452E-05
  11797.378      -0.51513966E-03  -0.51513794E-03  -0.51513406E-03  -0.51513794E-03  -0.26882313E-04   0.29256544E-05
  11802.377      -0.61691255E-03  -0.61690972E-03  -0.61690584E-03  -0.61690972E-03  -0.26302391E-04  -0.34265858E-06
  11807.377      -0.77813728E-03  -0.77813270E-03  -0.77812882E-03  -0.77813270E-03  -0.30308557E-04   0.22444946E-05
  11812.376      -0.91996780E-03  -0.91996169E-03  -0.91995780E-03  -0.91996169E-03  -0.38596902E-05   0.61902846E-05
  11817.376      -0.81673032E-03  -0.81672533E-03  -0.81672144E-03  -0.81672533E-03   0.31588099E-04   0.82071352E-05
  11822.375      -0.60411840E-03  -0.60411572E-03  -0.60411183E-03  -0.60411572E-03   0.78203455E-04   0.96580958E-05
  11827.374      -0.34852176E-04  -0.34855686E-04  -0.34851797E-04  -0.34855686E-04   0.12814974E-03   0.11552707E-04
  11832.374       0.67725085E-03   0.67723960E-03   0.67724349E-03   0.67723960E-03   0.19371897E-03   0.23214335E-04
  11837.373       0.19021438E-02   0.19021193E-02   0.19021232E-02   0.19021193E-02   0.36026988E-03   0.36561478E-04
  11842.373       0.42795893E-02   0.42795389E-02   0.42795428E-02   0.42795389E-02   0.55929720E-03   0.33694777E-04
  11847.372       0.74945565E-02   0.74944711E-02   0.74944750E-02   0.74944711E-02   0.69718395E-03   0.16093239E-03
  11847.872       0.81134039E-02   0.81133118E-02   0.81133157E-02   0.81133118E-02   0.14442644E-02   0.72296080E-03
  11848.372       0.89388209E-02   0.89387198E-02   0.89387237E-02   0.89387198E-02   0.14201448E-02  -0.42871578E-03
  11848.872       0.95335487E-02   0.95334411E-02   0.95334450E-02   0.95334411E-02   0.10155486E-02  -0.66055945E-03
  11849.372       0.99543695E-02   0.99542574E-02   0.99542613E-02   0.99542574E-02   0.75958530E-03   0.40461249E-03
  11849.872       0.10293134E-01   0.10293018E-01   0.10293022E-01   0.10293018E-01   0.14201611E-02   0.11248192E-02
  11850.372       0.11374531E-01   0.11374403E-01   0.11374407E-01   0.11374403E-01   0.18844045E-02  -0.26131292E-03
  11850.872       0.12177538E-01   0.12177402E-01   0.12177406E-01   0.12177402E-01   0.11588482E-02  -0.32602422E-03
  11851.372       0.12533379E-01   0.12533239E-01   0.12533243E-01   0.12533239E-01   0.15583803E-02   0.89606183E-03
  11851.872       0.13735919E-01   0.13735766E-01   0.13735769E-01   0.13735766E-01   0.20549100E-02   0.55571669E-04
  11852.372       0.14588289E-01   0.14588126E-01   0.14588130E-01   0.14588126E-01   0.16139520E-02   0.24812803E-03
  11852.872       0.15349871E-01   0.15349700E-01   0.15349704E-01   0.15349700E-01   0.23030381E-02   0.11810045E-02
  11853.372       0.16891327E-01   0.16891139E-01   0.16891143E-01   0.16891139E-01   0.27949565E-02   0.55327882E-03
  11853.872       0.18144827E-01   0.18144626E-01   0.18144630E-01   0.18144626E-01   0.28563169E-02  -0.28962124E-03
  11854.372       0.19747644E-01   0.19747425E-01   0.19747429E-01   0.19747425E-01   0.25053352E-02   0.41412249E-03
  11854.872       0.20650162E-01   0.20649934E-01   0.20649938E-01   0.20649934E-01   0.32704394E-02   0.83013686E-03
  11855.371       0.23014813E-01   0.23014559E-01   0.23014563E-01   0.23014559E-01   0.33346419E-02  -0.94109922E-04
  11855.871       0.23981470E-01   0.23981205E-01   0.23981209E-01   0.23981205E-01   0.31764236E-02   0.53818015E-03
  11856.371       0.26191236E-01   0.26190948E-01   0.26190952E-01   0.26190948E-01   0.38728221E-02   0.16685026E-02
  11856.871       0.27854292E-01   0.27853985E-01   0.27853989E-01   0.27853985E-01   0.48449262E-02   0.22282519E-02
  11857.371       0.31036163E-01   0.31035821E-01   0.31035825E-01   0.31035821E-01   0.61010740E-02   0.17178880E-02
  11857.871       0.33955366E-01   0.33954993E-01   0.33954997E-01   0.33954993E-01   0.65628142E-02   0.51427280E-04
  11858.371       0.37598977E-01   0.37598564E-01   0.37598568E-01   0.37598564E-01   0.61525013E-02   0.16476241E-02
  11858.871       0.40107867E-01   0.40107427E-01   0.40107431E-01   0.40107427E-01   0.82104383E-02   0.35034307E-02
  11859.371       0.45809415E-01   0.45808913E-01   0.45808917E-01   0.45808913E-01   0.96559320E-02   0.14560982E-02
  11859.871       0.49763799E-01   0.49763254E-01   0.49763258E-01   0.49763254E-01   0.96665365E-02   0.39059516E-02
  11860.371       0.55475951E-01   0.55475344E-01   0.55475348E-01   0.55475344E-01   0.13561884E-01   0.47193277E-02
  11860.871       0.63325683E-01   0.63324990E-01   0.63324994E-01   0.63324990E-01   0.14385864E-01   0.38428891E-02
  11861.371       0.69861816E-01   0.69861052E-01   0.69861056E-01   0.69861052E-01   0.17404773E-01   0.38893213E-02
  11861.871       0.80730455E-01   0.80729574E-01   0.80729578E-01   0.80729574E-01   0.18275185E-01   0.29084301E-02
  11862.371       0.88137001E-01   0.88136039E-01   0.88136043E-01   0.88136039E-01   0.20313203E-01   0.17205035E-01
  11862.871       0.10104366       0.10104256       0.10104256       0.10104256       0.35480221E-01   0.42645352E-01
  11863.371       0.12361722       0.12361587       0.12361588       0.12361587       0.62958555E-01   0.22394518E-01
  11863.871       0.16400221       0.16400043       0.16400043       0.16400043       0.57874739E-01   0.10468231E-02
  11864.370       0.18143409       0.18143211       0.18143211       0.18143211       0.64004331E-01   0.83340426E-01
  11864.870       0.22794254       0.22794006       0.22794006       0.22794006       0.14113182       0.17025394
  11865.370       0.32256591       0.32256240       0.32256240       0.32256240       0.23425827       0.13029423
  11865.870       0.46220081       0.46219579       0.46219579       0.46219579       0.27142606       0.15228683
  11866.370       0.59399197       0.59398550       0.59398551       0.59398550       0.38654511       0.33699053
  11866.870       0.84874592       0.84873669       0.84852509       0.84852509       0.60841659       0.25481360
  11867.370        1.2024086        1.1089453        1.2027401        1.1092899       0.64135870       0.33247482E-01
  11867.870        1.4901046        1.1042999        1.4909892        1.1052006       0.64166407      -0.40947237E-01
  11868.370        1.8440726        1.0997156        1.8455095        1.1011725       0.60041147      -0.33089411
  11868.870        2.0905161        1.0951919        2.0925065        1.0972050       0.31076996      -0.63931602
  11869.370        2.1548426        1.0907285        2.1573885        1.0932978      -0.38904548E-01  -0.71614236
  11869.870        2.0516115        1.0863249        2.0547147        1.0894504      -0.40537240      -0.56019978
  11870.370        1.7494702        1.0819807        1.7531328        1.0856624      -0.59910433      -0.19776807
  11870.870        1.4525072        1.0776955        1.4567292        1.0819333      -0.60314047       0.58648506E-01
  11871.370        1.1463297        1.0734687        1.1511113        1.0782627      -0.54045582       0.31719728
  11871.870       0.91205139        1.0693001       0.91739165        1.0746503      -0.28594319       0.47202576
  11872.370       0.86038653        1.0651891       0.86628354        1.0710955      -0.68430066E-01   0.28409566
  11872.870       0.84362132        1.0611354       0.85007468        1.0675980      -0.18475294E-02   0.11177325
  11873.370       0.85853900        1.0571385       0.86554838        1.0641572       0.43343186E-01   0.72395044E-01
  11873.869       0.88692117        1.0532058       0.89448530        1.0607796       0.70475119E-01   0.37115755E-01
  11874.369       0.92894365        1.0493212       0.93706350        1.0574511       0.80421825E-01   0.64659775E-03
  11874.869       0.96734299        1.0454920       0.97601860        1.0541782       0.71121717E-01  -0.22338820E-01
  11875.369        1.0000654        1.0417180        1.0092968        1.0509603       0.58083005E-01  -0.37043028E-01
  11875.869        1.0254260        1.0379987        1.0352133        1.0477972       0.34078689E-01  -0.48565479E-01
  11876.369        1.0341441        1.0343336        1.0444875        1.0446883       0.95175255E-02  -0.38956220E-01
  11876.869        1.0349435        1.0307223        1.0458431        1.0416332      -0.48775316E-02  -0.27134040E-01
  11877.369        1.0292665        1.0271644        1.0407224        1.0386315      -0.17616514E-01  -0.58600904E-02
  11877.869        1.0173270        1.0236595        1.0293391        1.0356827      -0.10737622E-01   0.20915849E-01
  11878.369        1.0185289        1.0202072        1.0310972        1.0327866       0.32993350E-02   0.11953167E-01
  11878.869        1.0206263        1.0168069        1.0337508        1.0299425       0.12155449E-02   0.44539001E-02
  11879.369        1.0197444        1.0134584        1.0334251        1.0271501       0.77532350E-02   0.11635642E-01
  11879.869        1.0283796        1.0101610        1.0426163        1.0244089       0.12851187E-01   0.24789933E-02
  11880.369        1.0325956        1.0069146        1.0473885        1.0217186       0.10232228E-01   0.73573834E-03
  11880.869        1.0386118        1.0037185        1.0539608        1.0190787       0.13586925E-01   0.52990684E-02
  11881.369        1.0461826        1.0005724        1.0620876        1.0164888       0.15531297E-01  -0.10073666E-02
  11881.869        1.0541431       0.99747580        1.0706043        1.0139484       0.12579559E-01  -0.59436731E-02
  11882.369        1.0587621       0.99442835        1.0757794        1.0114571       0.95876237E-02  -0.81967954E-02
  11882.868        1.0637211       0.99143554        1.0812934        1.0090194       0.43909600E-02  -0.15187522E-01
  11883.368        1.0631487       0.98848495        1.0812772        1.0066250      -0.55847112E-02  -0.16050423E-01
  11883.868        1.0581364       0.98558220        1.0768211        1.0042784      -0.11659463E-01  -0.16824422E-03
  11884.368        1.0514892       0.98272685        1.0707302        1.0019793      -0.57529554E-02   0.16582705E-01
  11884.868        1.0523835       0.97991849        1.0721806       0.99972706       0.49232411E-02   0.62287786E-02
  11885.368        1.0564125       0.97715668        1.0767657       0.99752143       0.47582320E-03  -0.12650709E-01
  11885.868        1.0528593       0.97444099        1.0737688       0.99536192      -0.77274680E-02  -0.11045577E-01
  11886.368        1.0486850       0.97177100        1.0701507       0.99324810      -0.10569754E-01   0.12726755E-02
  11886.868        1.0422895       0.96914628        1.0643115       0.99117956      -0.64547925E-02   0.14278288E-01
  11887.368        1.0422302       0.96656640        1.0648083       0.98915586       0.37085344E-02   0.97467163E-02
  11887.868        1.0459981       0.96403093        1.0691323       0.98717657       0.32919238E-02  -0.94561396E-02
  11888.368        1.0455221       0.96153945        1.0692126       0.98524127      -0.57476052E-02  -0.14448675E-01
  11888.868        1.0402505       0.95909153        1.0644972       0.98334952      -0.11156751E-01  -0.21951648E-02
  11889.368        1.0343654       0.95668674        1.0591683       0.98150091      -0.79427700E-02   0.44046019E-02
  11889.868        1.0323077       0.95432465        1.0576668       0.97969500      -0.67521492E-02  -0.18001043E-02
  11890.368        1.0276132       0.95200484        1.0535286       0.97793137      -0.97428744E-02  -0.76442586E-02
  11890.868        1.0225648       0.94972687        1.0490364       0.97620958      -0.14396408E-01  -0.46650939E-02
  11891.368        1.0132168       0.94749033        1.0402447       0.97452921      -0.14407968E-01  -0.29438690E-02
  11891.868        1.0081569       0.94529477        1.0357410       0.97288984      -0.17340277E-01  -0.17410413E-01
  11892.367       0.99589388       0.94314406        1.0240332       0.97129418      -0.31800970E-01  -0.13312737E-01
  11892.867       0.97638769       0.94102912        1.0050834       0.96973543      -0.30639702E-01  -0.18481149E-03
  11893.367       0.96525418       0.93895390       0.99450617       0.96821638      -0.31985782E-01  -0.33856331E-02
  11893.867       0.94440190       0.93691796       0.97421030       0.96673662      -0.34025335E-01  -0.52016537E-02
  11894.367       0.93122885       0.93492088       0.96159356       0.96529571      -0.37187436E-01  -0.27990976E-02
  11894.867       0.90721447       0.93296222       0.93813562       0.96389323      -0.36824432E-01   0.77962690E-02
  11895.367       0.89440441       0.93104156       0.92588188       0.96252875      -0.29391167E-01   0.53387834E-02
  11895.867       0.87782330       0.92915847       0.90985713       0.96120184      -0.31485649E-01   0.15285902E-02
  11896.367       0.86291876       0.92731252       0.89550893       0.95991207      -0.27862577E-01   0.47330506E-02
  11896.867       0.84996073       0.92550329       0.88310721       0.95865902      -0.26752598E-01   0.74486450E-02
  11897.367       0.83616617       0.92373035       0.86986898       0.95744225      -0.20413932E-01   0.75314137E-02
  11897.867       0.82954679       0.92199327       0.86380586       0.95626135      -0.19221185E-01  -0.51700381E-03
  11898.367       0.81694498       0.92029162       0.85176036       0.95511588      -0.20930935E-01   0.83217291E-02
  11898.867       0.80861586       0.91862497       0.84398750       0.95400541      -0.10899455E-01   0.11393474E-01
  11899.367       0.80604553       0.91699291       0.84197338       0.95292952      -0.95374616E-02   0.48571881E-02
  11899.867       0.79907840       0.91539499       0.83556250       0.95188778      -0.60422673E-02   0.17364302E-01
  11900.367       0.80000326       0.91383079       0.83704353       0.95087976       0.78268400E-02   0.13281501E-01
  11900.867       0.80690524       0.91229989       0.84450161       0.94990504       0.72392339E-02  -0.11809250E-01
  11901.366       0.80723525       0.91080482       0.84538669       0.94896503      -0.39706008E-02  -0.98662899E-02
  11901.866       0.80293861       0.90933915       0.84164627       0.94805554      -0.26171896E-02   0.77233571E-02
  11902.366       0.80461806       0.90790550       0.84388188       0.94717807       0.37527563E-02   0.10003779E-01
  11902.866       0.80669136       0.90650344       0.84651134       0.94633218       0.73865898E-02   0.73059039E-02
  11903.366       0.81200465       0.90513253       0.85238075       0.94551745       0.11058660E-01  -0.31442996E-02
  11903.866       0.81775002       0.90379234       0.85868223       0.94473344       0.42422901E-02  -0.10315757E-01
  11904.366       0.81624694       0.90248246       0.85773535       0.94397974       0.74290329E-03  -0.44359416E-02
  11904.866       0.81849293       0.90120245       0.86053749       0.94325591      -0.19365151E-03  -0.25631941E-02
  11905.366       0.81605329       0.89995189       0.85865405       0.94256152      -0.18202908E-02  -0.10304931E-02
  11905.866       0.81667264       0.89873034       0.85982957       0.94189615      -0.12241446E-02  -0.17539982E-02
  11906.366       0.81482915       0.89753738       0.85854228       0.94125937      -0.35742890E-02   0.11723000E-02
  11906.866       0.81309835       0.89637259       0.85736767       0.94065076      -0.51844600E-04   0.83386759E-02
  11907.366       0.81477730       0.89523553       0.85960279       0.94006988       0.47643869E-02   0.83351779E-02
  11907.866       0.81786273       0.89412578       0.86324437       0.93951630       0.82833333E-02   0.12056061E-02
  11908.366       0.82306064       0.89304290       0.86899839       0.93898960       0.59699930E-02  -0.34146719E-02
  11908.866       0.82383273       0.89198648       0.87032665       0.93848936       0.48686614E-02   0.42876715E-02
  11909.366       0.82792930       0.89095608       0.87497935       0.93801513       0.10257665E-01   0.77683097E-02
  11909.866       0.83409039       0.88995127       0.88169656       0.93756651       0.12636971E-01   0.79745626E-02
  11910.366       0.84056627       0.88897164       0.88872854       0.93714305       0.18232227E-01   0.85725080E-02
  11910.865       0.85230439       0.88801863       0.90102160       0.93674510       0.21200906E-01   0.11030952E-02
  11911.365       0.86174597       0.88708799       0.91101926       0.93637065       0.19334219E-01   0.41122415E-02
  11911.865       0.87163861       0.88618125       0.92146796       0.93602008       0.25313148E-01   0.36967546E-02
  11912.365       0.88705912       0.88529796       0.93744449       0.93569297       0.23030974E-01  -0.12425700E-01
  11912.865       0.89466958       0.88443770       0.94561104       0.93538889       0.12887448E-01  -0.59680534E-02
  11913.365       0.89994657       0.88360004       0.95144415       0.93510741       0.17062920E-01   0.10956509E-01
  11913.865       0.91173250       0.88278456       0.96378613       0.93484811       0.23843956E-01   0.48208134E-03
  11914.365       0.92379053       0.88199083       0.97640020       0.93461055       0.17545002E-01  -0.12327444E-01
  11914.865       0.92927750       0.88121841       0.98244330       0.93439431       0.11516512E-01  -0.62803267E-02
  11915.365       0.93530704       0.88046689       0.98902895       0.93419897       0.11264675E-01  -0.14102784E-03
  11915.865       0.94054218       0.87973583       0.99482020       0.93402408       0.11375484E-01  -0.94082959E-02
  11916.365       0.94668252       0.87902481        1.0015167       0.93386924       0.18563791E-02  -0.12699200E-01
  11916.865       0.94239856       0.87833339       0.99778892       0.93373400      -0.13237161E-02  -0.19900307E-02
  11917.365       0.94535881       0.87766116        1.0013053       0.93361794      -0.13365156E-03   0.11306687E-03
  11919.353       0.94206603       0.87516966        1.0002239       0.93333781      -0.10424057E-02  -0.13740105E-02
  11921.342       0.94121316       0.87294669        1.0015836       0.93332731      -0.55980913E-02  -0.24696609E-02
  11923.330       0.91980242       0.87096757       0.98238441       0.93355956      -0.10864247E-01  -0.16175590E-02
  11925.319       0.89800605       0.86920341       0.96280075       0.93400787      -0.12031124E-01   0.53899677E-05
  11927.307       0.87195464       0.86762907       0.93896099       0.93464490      -0.10842811E-01   0.15530688E-02
  11929.296       0.85488419       0.86621607       0.92410319       0.93544437      -0.58545689E-02   0.14896502E-02
  11931.284       0.84867102       0.86493892       0.92010146       0.93637858      -0.49184725E-02   0.49483368E-03
  11933.273       0.83532342       0.86376944       0.90896648       0.93742157      -0.38866154E-02   0.14158264E-02
  11935.261       0.83321395       0.86268189       0.90906839       0.93854539       0.71226898E-03   0.16752547E-02
  11937.250       0.83815612       0.86164827       0.91622298       0.93972424       0.27758727E-02   0.22257324E-03
  11939.238       0.84425360       0.86064272       0.92453176       0.94093006       0.15974428E-02  -0.11693231E-02
  11941.227       0.84450915       0.85963778       0.92699978       0.94213759      -0.18745255E-02  -0.15698935E-02
  11943.215       0.83679861       0.85862043       0.92150069       0.94333160      -0.46460235E-02  -0.14098751E-04
  11945.204       0.82603191       0.85758919       0.91294658       0.94451284      -0.19305962E-02   0.16345462E-02
  11947.192       0.82912063       0.85654535       0.91824663       0.94568036       0.18545667E-02   0.13180759E-02
  11949.181       0.83340752       0.85548812       0.92474595       0.94683560       0.33113915E-02   0.11701774E-02
  11951.169       0.84229003       0.85441879       0.93583973       0.94797764       0.65083623E-02   0.77129868E-03
  11953.158       0.85929128       0.85333654       0.95505326       0.94910787       0.63788463E-02   0.36759364E-03
  11955.146       0.86765871       0.85224271       0.96563196       0.95022540       0.79702822E-02   0.24288011E-03
  11957.135       0.89098909       0.85113645       0.99117457       0.95133161       0.73447805E-02  -0.14014319E-02
  11959.123       0.89686890       0.85001911       0.99926567       0.95242564       0.23967874E-02  -0.16227371E-02
  11961.112       0.90052111       0.84888982        1.0051303       0.95350882       0.89115512E-03  -0.38252112E-03
  11963.100       0.90041302       0.84774997        1.0072336       0.95458033       0.87550092E-03  -0.31367301E-03
  11965.089       0.90400298       0.84659864        1.0130360       0.95564148      -0.35632245E-03  -0.12879086E-02
  11967.077       0.89899593       0.84543726        1.0102404       0.95669146      -0.42465117E-02  -0.99317137E-03
  11969.066       0.88711461       0.84426489        1.0005716       0.95773156      -0.43061650E-02  -0.92896754E-04
  11971.054       0.88187031       0.84308296       0.99753876       0.95876100      -0.46159621E-02  -0.77868823E-03
  11973.043       0.86875692       0.84189054       0.98663799       0.95978105      -0.74030081E-02  -0.77757636E-03
  11975.031       0.85242855       0.84068907       0.97252115       0.96079094      -0.77083833E-02   0.38900707E-03
  11977.020       0.83810068       0.83947759       0.96040592       0.96179194      -0.58559269E-02   0.67616532E-03
  11979.008       0.82913952       0.83825756       0.95365622       0.96278327      -0.50192738E-02   0.52855819E-03
  11980.997       0.81813903       0.83702800       0.94486832       0.96376619      -0.37538510E-02   0.70830758E-03
  11982.985       0.81421046       0.83579041       0.94315116       0.96473996      -0.22023345E-02   0.50225632E-03
  11984.974       0.80938035       0.83454377       0.94053357       0.96570580      -0.17563776E-02   0.96946322E-04
  11986.962       0.80722535       0.83328960       0.94058995       0.96666299      -0.18167790E-02  -0.18263859E-03
  11988.951       0.80215502       0.83202688       0.93773216       0.96761274      -0.24827313E-02  -0.24487459E-03
  11990.939       0.79735152       0.83075712       0.93514008       0.96855434      -0.27906453E-02   0.26079834E-03
  11992.928       0.79105662       0.82947930       0.93105772       0.96948900      -0.14455363E-02   0.69469713E-03
  11994.916       0.79160263       0.82819495       0.93381508       0.97041601      -0.27834797E-04   0.24639362E-03
  11996.905       0.79094592       0.82690302       0.93537086       0.97133655      -0.46562887E-03   0.39613732E-03
  11998.893       0.78975082       0.82560506       0.93638713       0.97224996       0.15476033E-02   0.88726436E-03
  12000.882       0.79710074       0.82430002       0.94594945       0.97315739       0.30630215E-02   0.18527577E-03
  12002.870       0.80193246       0.82298944       0.95299247       0.97405818       0.22844451E-02  -0.24204389E-03
  12004.858       0.80618369       0.82167294       0.95945503       0.97495304       0.21006550E-02  -0.23330699E-04
  12006.847       0.81028676       0.82035008       0.96577052       0.97584265       0.21916589E-02   0.13227186E-03
  12008.835       0.81489992       0.81902245       0.97259500       0.97672638       0.26267001E-02   0.32109156E-04
  12010.824       0.82073315       0.81768895       0.98064063       0.97760536       0.23193570E-02  -0.41833023E-03
  12012.812       0.82412400       0.81635118       0.98624282       0.97847895       0.96300083E-03  -0.77334073E-03
  12014.801       0.82456300       0.81500803       0.98889428       0.97934828      -0.75621906E-03  -0.44405294E-03
  12016.789       0.82111652       0.81366112       0.98765920       0.98021273      -0.80299772E-03  -0.53868846E-04
  12018.778       0.82136948       0.81230931       0.99012463       0.98107340      -0.97045546E-03  -0.38422836E-03
  12020.766       0.81725702       0.81095424       0.98822358       0.98192969      -0.23310739E-02  -0.18838621E-03
  12022.755       0.81209880       0.80959477       0.98527789       0.98278270      -0.17196674E-02   0.10013389E-02
  12024.743       0.81041790       0.80823253       0.98580838       0.98363182       0.16512509E-02   0.94179580E-03
  12026.732       0.81866582       0.80686639       0.99626868       0.98447815       0.20258545E-02  -0.72384279E-03
  12028.720       0.81847473       0.80549797       0.99828895       0.98532110      -0.12274718E-02  -0.56482396E-03
  12030.709       0.81378417       0.80412615       0.99581092       0.98616175      -0.22045041E-03   0.22839365E-03
  12032.697       0.81759799       0.80275255        1.0018361       0.98699951      -0.31915028E-03  -0.10533380E-03
  12034.686       0.81251491       0.80137603       0.99896551       0.98783547      -0.63936295E-03   0.42464267E-04
  12036.674       0.81505525       0.79999823        1.0037172       0.98866903      -0.15026989E-03  -0.20672499E-03
  12038.663       0.81191728       0.79861802        1.0027917       0.98950129      -0.14615082E-02  -0.33326452E-03
  12040.651       0.80924283       0.79723701        1.0023287       0.99033165      -0.14756629E-02  -0.68187208E-03
  12041.151       0.80824583       0.79688948        1.0018879       0.99054029      -0.31580060E-02  -0.59189897E-03
  12041.651       0.80608482       0.79654186        1.0002830       0.99074885      -0.20675618E-02   0.50753433E-02
  12042.151       0.80617827       0.79619418        1.0009327       0.99095735       0.19173373E-02   0.34419346E-02
  12042.651       0.80800216       0.79584644        1.0033127       0.99116578       0.13743728E-02  -0.21806612E-02
  12043.151       0.80755265       0.79549863        1.0034194       0.99137415      -0.26332394E-03  -0.37986979E-02
  12043.651       0.80773884       0.79515076        1.0041618       0.99158246      -0.24243251E-02   0.35809240E-02
  12044.151       0.80512832       0.79480284        1.0021074       0.99179071       0.33176000E-02   0.61542648E-02
  12044.651       0.81105644       0.79445486        1.0085917       0.99199892       0.37299396E-02  -0.62399710E-02
  12045.151       0.80885826       0.79410685        1.0069497       0.99220708      -0.29223710E-02  -0.56139899E-02
  12045.651       0.80813407       0.79375878        1.0067817       0.99241520      -0.18840503E-02   0.16552278E-02
  12046.151       0.80697421       0.79341069        1.0061780       0.99262327      -0.12671432E-02  -0.12311343E-02
  12046.651       0.80686692       0.79306255        1.0066269       0.99283132      -0.31151846E-02  -0.12590984E-02
  12047.151       0.80385903       0.79271439        1.0041752       0.99303933      -0.25262416E-02   0.20068683E-02
  12047.651       0.80434068       0.79236620        1.0052131       0.99324732      -0.11083162E-02   0.21203503E-03
  12048.151       0.80275071       0.79201798        1.0041793       0.99345528      -0.23142066E-02   0.33548232E-04
  12048.650       0.80202879       0.79167045        1.0040124       0.99366281      -0.10748016E-02   0.47530446E-02
  12049.150       0.80167698       0.79132220        1.0042168       0.99387074       0.24340850E-02   0.26054157E-03
  12049.650       0.80446287       0.79097394        1.0075588       0.99407866      -0.81425998E-03  -0.71782197E-03
  12050.150       0.80086272       0.79062567        1.0045149       0.99428657       0.17162630E-02   0.43966590E-02
  12050.650       0.80617914       0.79027741        1.0103874       0.99449448       0.35823990E-02  -0.38440482E-02
  12051.150       0.80444512       0.78992914        1.0092096       0.99470239      -0.21277852E-02  -0.40195947E-02
  12051.650       0.80405135       0.78958088        1.0093720       0.99491031      -0.43719568E-03  -0.16401145E-02
  12052.150       0.80400793       0.78923262        1.0098848       0.99511823      -0.37678997E-02  -0.96389239E-03
  12052.650       0.80028345       0.78888438        1.0067165       0.99532617      -0.14010881E-02   0.10198150E-02
  12054.661       0.80048979       0.78748397        1.0091598       0.99616270      -0.12071441E-02  -0.27095418E-03
  12056.672       0.79542832       0.78608407        1.0063354       0.99699975      -0.24908658E-02  -0.33375728E-03
  12058.683       0.79047153       0.78468497        1.0036156       0.99783759      -0.25495159E-02  -0.18075287E-03
  12060.694       0.78517417       0.78328690        1.0005552       0.99867647      -0.32178538E-02  -0.36206236E-03
  12062.705       0.77752932       0.78189012       0.99514739       0.99951664      -0.40057307E-02   0.16324707E-03
  12064.716       0.76906312       0.78049489       0.98891822        1.0003584      -0.25612741E-02   0.69607813E-03
  12066.728       0.76722532       0.77910078       0.98931850        1.0012023      -0.12054084E-02   0.21019342E-03
  12068.739       0.76421376       0.77770943       0.98854392        1.0020479      -0.17156660E-02  -0.15858229E-04
  12070.750       0.76032491       0.77632039       0.98689206        1.0028958      -0.12691902E-02   0.27756222E-03
  12072.761       0.75910907       0.77493394       0.98791319        1.0037463      -0.59931074E-03  -0.25503926E-04
  12074.772       0.75791448       0.77355031       0.98895555        1.0045996      -0.13717670E-02  -0.89378167E-04
  12076.783       0.75359183       0.77216977       0.98686989        1.0054560      -0.95878973E-03   0.40137873E-03
  12078.794       0.75405823       0.77079257       0.98957324        1.0063158       0.24257825E-03   0.23968635E-03
  12080.805       0.75456748       0.76941898       0.99231943        1.0071791       0.52287672E-05  -0.20259248E-04
  12082.816       0.75407926       0.76804924       0.99406816        1.0080463       0.16109556E-03  -0.69954707E-04
  12084.827       0.75521540       0.76668362       0.99744124        1.0089177      -0.27612906E-03   0.24072512E-03
  12086.838       0.75296867       0.76532236       0.99743147        1.0097934       0.11292920E-02   0.47882267E-04
  12088.849       0.75975742       0.76396573        1.0064571        1.0106737      -0.83546584E-04  -0.64976382E-03
  12090.860       0.75263264       0.76261398        1.0015693        1.0115589      -0.14840581E-02   0.10468414E-03
  12092.871       0.75378853       0.76126737        1.0049622        1.0124492       0.33749302E-03   0.28547024E-03
  12094.883       0.75399038       0.75992548        1.0074021        1.0133454      -0.33561136E-03   0.68632607E-04
  12096.894       0.75243837       0.75858992        1.0080870        1.0142468       0.61360199E-03   0.13646568E-04
  12098.905       0.75645829       0.75726026        1.0143438        1.0151540      -0.28072486E-03  -0.32521028E-03
  12100.916       0.75130929       0.75593676        1.0114319        1.0160675      -0.69439377E-03   0.31272255E-03
  12102.927       0.75366543       0.75461968        1.0160249        1.0169874       0.97704524E-03   0.36689456E-03
  12104.938       0.75523897       0.75330928        1.0198354        1.0179139       0.78125616E-03   0.29152077E-03
  12106.949       0.75680765       0.75200581        1.0236410        1.0188474       0.21495418E-02   0.56757099E-03
  12108.960       0.76388443       0.75070952        1.0329546        1.0197880       0.30640267E-02  -0.14299030E-03
  12110.971       0.76913116       0.74942068        1.0404383        1.0207361       0.15744348E-02  -0.76927197E-03
  12112.982       0.77021680       0.74813954        1.0437608        1.0216920      -0.29985175E-04  -0.41600767E-03
  12114.993       0.76901056       0.74686635        1.0447916        1.0226557      -0.98748026E-04  -0.43865456E-03
  12117.004       0.76981964       0.74560138        1.0478376        1.0236277      -0.17942538E-02  -0.49074010E-03
  12119.015       0.76179407       0.74434488        1.0420490        1.0246081      -0.20725047E-02  -0.74112933E-04
  12121.026       0.76148403       0.74309710        1.0439759        1.0255973      -0.20923360E-02  -0.62798507E-04
  12123.037       0.75337870       0.74185830        1.0381077        1.0265954      -0.23250803E-02   0.30116116E-03
  12125.049       0.75213023       0.74062812        1.0390973        1.0276033      -0.88076467E-03   0.45261835E-03
  12127.060       0.74983538       0.73940806        1.0390394        1.0286202      -0.50419666E-03  -0.22237373E-03
  12129.071       0.75010235       0.73819774        1.0415433        1.0296468      -0.17751518E-02  -0.67192724E-03
  12131.082       0.74269572       0.73699743        1.0363737        1.0306835      -0.32066880E-02  -0.37730969E-03
  12133.093       0.73720505       0.73580738        1.0331200        1.0317304      -0.32926914E-02   0.43159245E-03
  12135.104       0.72945251       0.73462785        1.0276045        1.0327878      -0.14708232E-02   0.97821025E-03
  12137.115       0.73128940       0.73345910        1.0316783        1.0338560       0.64167025E-03  -0.14121562E-03
  12139.126       0.73203331       0.73230137        1.0346592        1.0349352      -0.20387924E-02  -0.77377463E-03
  12141.137       0.72308938       0.73115493        1.0279523        1.0360257      -0.24704513E-02   0.12164603E-03
  12143.148       0.72209716       0.73002004        1.0291970        1.0371278      -0.15495321E-02   0.35361390E-03
  12145.159       0.71685716       0.72889694        1.0261940        1.0382416      -0.10482162E-02   0.23717369E-03
  12147.170       0.71788123       0.72778590        1.0294550        1.0393675      -0.59561949E-03   0.23441878E-04
  12149.181       0.71446158       0.72668717        1.0282724        1.0405057      -0.95393298E-03  -0.20045201E-03
  12151.192       0.71404451       0.72560100        1.0300923        1.0416565      -0.14018375E-02  -0.16504177E-04
  12153.204       0.70882198       0.72452714        1.0271078        1.0428207      -0.10203293E-02   0.17073140E-03
  12155.215       0.70993973       0.72346688        1.0304625        1.0439974      -0.71498506E-03  -0.36803970E-04
  12157.226       0.70594631       0.72241997        1.0287061        1.0451874      -0.11683549E-02   0.13208427E-03
  12159.237       0.70524061       0.72138664        1.0302373        1.0463911      -0.18374215E-03   0.40354707E-03
  12161.248       0.70520730       0.72036717        1.0324410        1.0476085       0.45471147E-03   0.65361295E-06
  12163.259       0.70706945       0.71936180        1.0365401        1.0488401      -0.18111331E-03  -0.24625542E-03
  12165.270       0.70447887       0.71837079        1.0361865        1.0500860      -0.53572782E-03  -0.58113649E-04
  12167.281       0.70491476       0.71739440        1.0388593        1.0513466      -0.41484641E-03  -0.48499450E-04
  12169.292       0.70281035       0.71643288        1.0389919        1.0526220      -0.73079261E-03   0.51484641E-04
  12171.303       0.70197551       0.71548649        1.0403940        1.0539126      -0.20777519E-03   0.24825868E-03
  12173.314       0.70197468       0.71455549        1.0426301        1.0552185       0.26770382E-03  -0.16029053E-03
  12175.325       0.70305221       0.71364013        1.0459446        1.0565401      -0.85246369E-03  -0.62368242E-03
  12177.336       0.69854607       0.69853847        1.0436754        1.0436754      -0.22407469E-02  -0.69034469E-03
