# Athena data file -- Athena version 0.8.056
# Saving sodium_arsenate_ref_als_cal as normalized mu(E)
# .  Element=As   Edge=K
# Background parameters
# .  E0=11871.000  Eshift=0.000  Rbkg=1.000
# .  Standard=0: None
# .  Kweight=2.0  Edge step=0.265
# .  Fixed step=no    Flatten=yes
# .  Pre-edge range: [ -42.000 : -15.000 ]
# .  Pre-edge line: -2.4212 + 0.00013516 * E
# .  Normalization range: [ 58.605 : 227.313 ]
# .  Post-edge polynomial: -0.78421 + 1.9627e-005 * E + 0 * E^2
# .  Spline range: [ 0.000 : 227.775 ]   Clamps: None/Strong
# Foreward FT parameters
# .  Kweight=0.5   Window=hanning   Phase correction=no
# .  k-range: [ 2.000 : 5.732 ]   dk=1.00
# Backward FT parameters
# .  R-range: [ 1.000 : 3.000 ]
# .  dR=0.00   Window=hanning
# Plotting parameters
# .  Multiplier=1   Y-offset=0.000
# .
# Athena data file -- Athena version 0.8.059
# Saving sodium_arsenate_ref_als_cal.0002 as mu(E)
# .  Element=As   Edge=K
# Background parameters
# .  E0=11875.000  Eshift=1.255  Rbkg=1.000
# .  Standard=0: None
# .  Kweight=2.0  Edge step=0.229
# .  Fixed step=no    Flatten=yes
# .  Pre-edge range: [ -145.720 : -30.000 ]
# .  Pre-edge line: 0.32907 + -9.7296e-005 * E
# .  Normalization range: [ 150.000 : 202.197 ]
# .  Post-edge polynomial: -3.9972 + 0.00028628 * E + 0 * E^2
# .  Spline range: [ 0.000 : 302.196 ]   Clamps: None/Strong
# Foreward FT parameters
# .  Kweight=0.5   Window=hanning   Phase correction=no
# .  k-range: [ 2.000 : 6.906 ]   dk=1.00
# Backward FT parameters
# .  R-range: [ 1.000 : 3.000 ]
# .  dR=0.00   Window=hanning
# Plotting parameters
# .  Multiplier=1   Y-offset=0.000
# .
# 1-D Scan File created by LabVIEW Control Panel  7/20/2009  5:07:46 AM; Scan time 0 hrs 16 min 19 sec.
# ^^ Imported with reference channel
# User Comment:
# sodium arsenate salt - in Kapton - room temperature - 2 layers
# Amplifier Sensitivities:
# Preslit: 500 pA/V  I0: 100 nA/V  I: 50 nA/V  Iref: 10 nA/V
# Analog Input Voltages at start/end of scan:
# Preslit: 1.269/1.091  I0: 1.673/1.624  I: 3.611/2.716  Iref: 2.067/0.730
# Mono Info:
# ID Info:
# Motor Positions:
# SMV (20bm:m29): -13216.281250 SMH (20bm:m30): -10750.550781
# Detector Names/PVs:
# Preslit/20bm:scaler1_netA.B  I0/20bm:scaler1_netA.C  I/20bm:scaler1_netA.D  Iref/20bm:scaler1_netA.E  DTcorr_I0_DXP/20bm:userCalc9.VAL
# DXP12:As_Sum/20d1:dxpCalc1.VAL  DXP12:Fe_Sum/20d1:dxpCalc5.VAL  DXP12:0:As/20d1:dxp_mca0.R0  DXP12:1:As/20d1:dxp_mca1.R0  DXP12:2:As/20d1:dxp_mca2.R0
# DXP12:3:As/20d1:dxp_mca3.R0  DXP12:4:As/20d1:dxp_mca4.R0  DXP12:5:As/20d1:dxp_mca5.R0  DXP12:6:As/20d1:dxp_mca6.R0  DXP12:7:As/20d1:dxp_mca7.R0
# DXP12:8:As/20d1:dxp_mca8.R0  DXP12:9:As/20d1:dxp_mca9.R0  DXP12:10:As/20d1:dxp_mca10.R0  DXP12:11:As/20d1:dxp_mca11.R0  DXP12:total_Sum/20d1:dxpCalc12.VAL
# DXP12:0:total/20d1:dxp_mca0.R11  DXP12:1:total/20d1:dxp_mca1.R11  DXP12:2:total/20d1:dxp_mca2.R11  DXP12:3:total/20d1:dxp_mca3.R11  DXP12:4:total/20d1:dxp_mca4.R11
# DXP12:5:total/20d1:dxp_mca5.R11  DXP12:6:total/20d1:dxp_mca6.R11  DXP12:7:total/20d1:dxp_mca7.R11  DXP12:8:total/20d1:dxp_mca8.R11  DXP12:9:total/20d1:dxp_mca9.R11
# DXP12:10:total/20d1:dxp_mca10.R11  DXP12:11:total/20d1:dxp_mca11.R11
# Positioner names/Drive PVs/Readback PVs:
# Mono Energy */20bm:monoE.VAL/20bm:EnctoE.VAL  Scaler preset time */20bm:scaler1.TP/
# Here is a readable list of column headings:
# 1) Mono Energy *        11) DXP12:1:As           21) DXP12:11:As          31) DXP12:8:total
# 2) Scaler preset time * 12) DXP12:2:As           22) DXP12:total_Sum      32) DXP12:9:total
# 3) Preslit              13) DXP12:3:As           23) DXP12:0:total        33) DXP12:10:total
# 4) I0                   14) DXP12:4:As           24) DXP12:1:total        34) DXP12:11:total
# 5) I                    15) DXP12:5:As           25) DXP12:2:total
# 6) Iref                 16) DXP12:6:As           26) DXP12:3:total
# 7) DTcorr_I0_DXP        17) DXP12:7:As           27) DXP12:4:total
# 8) DXP12:As_Sum         18) DXP12:8:As           28) DXP12:5:total
# 9) DXP12:Fe_Sum         19) DXP12:9:As           29) DXP12:6:total
# 10) DXP12:0:As           20) DXP12:10:As          30) DXP12:7:total
# Column Headings:
# Mono Energy *        Scaler preset time * Preslit              I0                   I                    Iref                 DTcorr_I0_DXP        DXP12:As_Sum         DXP12:Fe_Sum         DXP12:0:As           DXP12:1:As           DXP12:2:As           DXP
#------------------------
#  energy norm bkg_norm der_norm
  11827.865       0.51121546E-02   0.51204456E-02  -0.73762770E-03
  11833.193       0.11126694E-02   0.11209562E-02  -0.61353711E-03
  11838.252      -0.13731985E-02  -0.13649158E-02  -0.37141259E-03
  11843.102      -0.26326522E-02  -0.26243733E-02  -0.77030923E-04
  11847.925      -0.21314774E-02  -0.21232022E-02  -0.10627471E-03
  11848.383      -0.32038004E-02  -0.31955255E-02  -0.28098989E-03
  11848.811      -0.23848310E-02  -0.23765565E-02   0.92267033E-03
  11849.300      -0.23427698E-02  -0.23344957E-02   0.20662617E-03
  11849.789      -0.21791819E-02  -0.21709082E-02   0.42263379E-03
  11850.247      -0.19354675E-02  -0.19271942E-02   0.66413281E-03
  11850.705      -0.15600929E-02  -0.15518199E-02   0.80574685E-03
  11851.102      -0.12343878E-02  -0.12261152E-02   0.66861599E-03
  11851.469      -0.10402492E-02  -0.10319769E-02   0.65704583E-03
  11851.775      -0.78438692E-03  -0.77611478E-03   0.76133691E-03
  11852.141      -0.51959569E-03  -0.51132385E-03   0.89591024E-03
  11852.447      -0.17170306E-03  -0.16343146E-03   0.12645268E-02
  11852.905       0.46356396E-03   0.47183520E-03   0.10518107E-02
  11853.394       0.84195207E-03   0.85022293E-03   0.53230420E-03
  11853.945       0.10269368E-02   0.10352072E-02   0.63734911E-03
  11854.495       0.15560658E-02   0.15643358E-02   0.10791066E-02
  11854.923       0.21009407E-02   0.21092104E-02   0.16483256E-02
  11855.321       0.29416270E-02   0.29498963E-02   0.18963044E-02
  11855.688       0.35772323E-02   0.35855014E-02   0.24352268E-02
  11856.055       0.47606498E-02   0.47689185E-02   0.30947030E-02
  11856.452       0.59833397E-02   0.59916081E-02   0.24743744E-02
  11856.880       0.68380588E-02   0.68463269E-02   0.23070189E-02
  11857.247       0.78498094E-02   0.78580772E-02   0.25144208E-02
  11857.645       0.87955601E-02   0.88038276E-02   0.28485205E-02
  11857.951       0.98905822E-02   0.98988495E-02   0.32475794E-02
  11858.287       0.10917326E-01   0.10925593E-01   0.28595641E-02
  11858.685       0.12026569E-01   0.12034836E-01   0.40898095E-02
  11858.991       0.13847399E-01   0.13855665E-01   0.45874250E-02
  11859.419       0.15453203E-01   0.15461469E-01   0.39778165E-02
  11859.817       0.17191100E-01   0.17199366E-01   0.48791245E-02
  11860.215       0.19405573E-01   0.19413839E-01   0.55295057E-02
  11860.552       0.21327060E-01   0.21335325E-01   0.51353159E-02
  11861.011       0.23565473E-01   0.23573738E-01   0.60218364E-02
  11861.409       0.26578911E-01   0.26587176E-01   0.69229256E-02
  11861.899       0.29821596E-01   0.29829861E-01   0.66557781E-02
  11862.327       0.32796818E-01   0.32805081E-01   0.79594325E-02
  11862.786       0.37006292E-01   0.37014556E-01   0.97508610E-02
  11863.154       0.41003188E-01   0.41011452E-01   0.97015585E-02
  11863.582       0.44865110E-01   0.44873373E-01   0.99995381E-02
  11863.858       0.48167183E-01   0.48175446E-01   0.13127550E-01
  11864.226       0.53468552E-01   0.53476814E-01   0.10467997E-01
  11864.624       0.56327275E-01   0.56335537E-01   0.10009154E-01
  11864.961       0.60955199E-01   0.60963460E-01   0.14391846E-01
  11865.389       0.67531469E-01   0.67539730E-01   0.14002672E-01
  11865.818       0.73167413E-01   0.73175674E-01   0.16285242E-01
  11866.278       0.82264721E-01   0.82272982E-01   0.20179085E-01
  11866.737       0.92039487E-01   0.92047748E-01   0.25039186E-01
  11867.166       0.10489218       0.10490044       0.33448405E-01
  11867.473       0.11709226       0.11710052       0.43140869E-01
  11867.840       0.13448262       0.13449088       0.50456244E-01
  11868.177       0.15324076       0.15324902       0.60828335E-01
  11868.576       0.18004291       0.18005117       0.72301385E-01
  11868.913       0.20739433       0.20740259       0.84229952E-01
  11869.373       0.24835971       0.24836797       0.98708223E-01
  11869.710       0.28745410       0.28746236       0.11744339
  11870.170       0.34361510       0.34362336       0.14590673
  11870.476       0.40119240       0.40120066       0.20615865
  11870.844       0.48495198       0.48496024       0.23721448
  11871.212       0.57895776        1.8533441       0.32000766
  11871.641       0.74484906        1.8294081       0.44606242
  11872.132       0.99698283        1.8025140       0.56970103
  11872.561        1.2786304        1.7794500       0.73130275
  11873.021        1.6589791        1.7551653       0.79698787
  11873.451        2.0008635        1.7328779       0.76951059
  11873.911        2.3563255        1.7094741       0.64867881
  11874.371        2.6085876        1.6865196       0.40444464
  11874.831        2.7353861        1.6640102       0.12089498
  11875.261        2.7184716        1.6433676      -0.16745326
  11875.660        2.5944766        1.6245549      -0.38743807
  11875.997        2.4286017        1.6089195      -0.47193034
  11876.366        2.2557171        1.5920645      -0.50220901
  11876.642        2.0992372        1.5796371      -0.46918126
  11877.071        1.9194097        1.5606239      -0.38494109
  11877.440        1.7869767        1.5445627      -0.29667666
  11877.962        1.6507904        1.5223001      -0.20664325
  11878.483        1.5680955        1.5006099      -0.13648236
  11879.005        1.5063794        1.4794030      -0.97581367E-01
  11879.435        1.4739718        1.4623239      -0.77943127E-01
  11879.834        1.4409842        1.4467883      -0.83291220E-01
  11880.172        1.4118229        1.4338609      -0.93516836E-01
  11880.571        1.3711659        1.4188731      -0.10311775
  11880.940        1.3315642        1.4052728      -0.10713227
  11881.370        1.2844033        1.3897372      -0.10233365
  11881.769        1.2455922        1.3756201      -0.89836934E-01
  11882.199        1.2089741        1.3607247      -0.88477310E-01
  11882.506        1.1795536        1.3502904      -0.84777787E-01
  11882.875        1.1509465        1.3379677      -0.71441252E-01
  11883.213        1.1284604        1.3268882      -0.55639313E-01
  11883.582        1.1112225        1.3150177      -0.39500000E-01
  11883.950        1.0991556        1.3034112      -0.29574441E-01
  11884.350        1.0884425        1.2910555      -0.11200840E-01
  11884.719        1.0907247        1.2798955       0.13469272E-01
  11885.149        1.0997422        1.2671759       0.26042320E-01
  11885.549        1.1130828        1.2556164       0.40867483E-01
  11885.979        1.1346225        1.2434801       0.43380583E-01
  11886.440        1.1528053        1.2307989       0.46952391E-01
  11886.932        1.1805731        1.2176371       0.54737950E-01
  11887.393        1.2063066        1.2056489       0.51823535E-01
  11887.762        1.2247075        1.1962903       0.44653687E-01
  11888.192        1.2429627        1.1856475       0.37324477E-01
  11888.500        1.2530606        1.1781964       0.29223192E-01
  11888.869        1.2633908        1.1694569       0.23292769E-01
  11889.177        1.2694030        1.1623170       0.15252359E-01
  11889.546        1.2741937        1.1539465       0.84398444E-02
  11889.915        1.2760628        1.1457743       0.52776367E-03
  11890.376        1.2750007        1.1358396      -0.80722800E-02
  11890.838        1.2688822        1.1261861      -0.15465121E-01
  11891.268        1.2613504        1.1174698      -0.13348374E-01
  11891.668        1.2579687        1.1095910      -0.15382866E-01
  11892.068        1.2491750        1.1019306      -0.20852941E-01
  11892.407        1.2426078        1.0956072      -0.24493719E-01
  11892.776        1.2318353        1.0888984      -0.28969159E-01
  11893.084        1.2229440        1.0834360      -0.25338466E-01
  11893.545        1.2123407        1.0754909      -0.23470353E-01
  11893.915        1.2034574        1.0693118      -0.22738863E-01
  11894.346        1.1941538        1.0623329      -0.21311002E-01
  11894.715        1.1864557        1.0565425      -0.24163110E-01
  11895.085        1.1763036        1.0509051      -0.25681305E-01
  11895.423        1.1682604        1.0459012      -0.25855735E-01
  11895.823        1.1572062        1.0401570      -0.30905389E-01
  11896.193        1.1443781        1.0350128      -0.35006337E-01
  11896.655        1.1279287        1.0288143      -0.39454178E-01
  11897.055        1.1101432        1.0236463      -0.42775702E-01
  11897.486        1.0921161        1.0182809      -0.40518903E-01
  11897.948        1.0737095        1.0127597      -0.34047789E-01
  11898.410        1.0605025        1.0074724      -0.30298297E-01
  11898.903        1.0446793        1.0020837      -0.30735750E-01
  11899.335        1.0319724       0.99757288      -0.28995097E-01
  11899.828        1.0177878       0.99266131      -0.31354131E-01
  11900.197        1.0048430       0.98914696      -0.32750673E-01
  11900.567       0.99347923       0.98575983      -0.33947115E-01
  11900.906       0.98065807       0.98277484      -0.33839060E-01
  11901.245       0.97042627       0.97990130      -0.34271046E-01
  11901.553       0.95837472       0.97738578      -0.33874788E-01
  11901.985       0.94523831       0.97400785      -0.30191389E-01
  11902.416       0.93223503       0.97080955      -0.31816007E-01
  11902.940       0.91473309       0.96714733      -0.28152743E-01
  11903.495       0.90179139       0.96353271      -0.25811264E-01
  11903.958       0.88843627       0.96072009      -0.25880833E-01
  11904.389       0.87863442       0.95826370      -0.22898575E-01
  11904.760       0.87009635       0.95627154      -0.25477841E-01
  11905.099       0.86053472       0.95454818      -0.27534266E-01
  11905.530       0.84885569       0.95248813      -0.23375542E-01
  11905.870       0.84252947       0.95096443      -0.16698269E-01
  11906.332       0.83557623       0.94903407      -0.12890112E-01
  11906.703       0.83196493       0.94759819      -0.92758349E-02
  11907.104       0.82862483       0.94615792      -0.80850819E-02
  11907.443       0.82619839       0.94502890      -0.61106768E-02
  11907.813       0.82452443       0.94388717      -0.40532154E-02
  11908.153       0.82357880       0.94291951      -0.34102562E-02
  11908.492       0.82246350       0.94203069      -0.79323041E-02
  11908.862       0.81816406       0.94114525      -0.46550902E-02
  11909.294       0.81901325       0.94022043       0.56099554E-03
  11909.665       0.81897199       0.93951743       0.50480115E-03
  11910.097       0.81977526       0.93880201       0.32864496E-02
  11910.498       0.82212050       0.93823441       0.38230781E-02
  11910.992       0.82364687       0.93765872      -0.12660268E-02
  11911.424       0.82133049       0.93726327      -0.11300440E-02
  11911.887       0.82300716       0.93694722       0.19990379E-02
  11912.289       0.82346667       0.93676002       0.33666982E-02
  11912.628       0.82586845       0.93666302       0.80507111E-02
  11913.030       0.82986011       0.93661774       0.89593086E-02
  11913.369       0.83294705       0.93663643       0.99840072E-02
  11913.740       0.83738296       0.93671445       0.10489222E-01
  11914.080       0.84084605       0.93683697       0.91298980E-02
  11914.450       0.84428868       0.93702371       0.65009211E-02
  11914.852       0.84628939       0.93728726       0.41759491E-02
  11915.346       0.84848638       0.93769363       0.80152964E-02
  11915.748       0.85398790       0.93808814       0.13101063E-01
  11916.211       0.86039541       0.93860960       0.11687024E-01
  11916.551       0.86388780       0.93903591       0.10403355E-01
  11916.953       0.86857397       0.93958481       0.87884040E-02
  11917.262       0.87055616       0.94003811       0.85783210E-02
  11917.633       0.87480620       0.94061646       0.40448101E-02
  11918.004       0.87393336       0.94122995       0.50819353E-03
  11918.405       0.87554146       0.94193006       0.30037911E-02
  11918.838       0.87684575       0.94272610       0.52478613E-02
  11919.271       0.88054328       0.94356036       0.50396171E-02
  11919.611       0.88114660       0.94423998       0.97643648E-03
  11919.951       0.88151494       0.94493934       0.19150559E-02
  11920.322       0.88284171       0.94572303       0.28183998E-02
  11920.693       0.88396607       0.94652605       0.28485550E-02
  11921.157       0.88562568       0.94755425      -0.76742252E-03
  11921.497       0.88368810       0.94832224       0.35195564E-04
  11921.992       0.88601901       0.94945855       0.15501751E-02
  11922.425       0.88555596       0.95046659       0.17283608E-02
  11922.920       0.88805515       0.95163040       0.25421432E-02
  11923.353       0.88836063       0.95265454       0.23538562E-02
  11923.879       0.89076976       0.95390108       0.33698442E-02
  11924.312       0.89206678       0.95492512       0.44508779E-02
  11924.745       0.89506920       0.95594353       0.62353946E-02
  11925.147       0.89772870       0.95688098       0.72469934E-02
  11925.519       0.90111431       0.95773965       0.99084411E-02
  11925.859       0.90521799       0.95851685       0.10658787E-01
  11926.169       0.90844777       0.95921918       0.90460516E-02
  11926.540       0.91178354       0.96005183       0.87008074E-02
  11926.943       0.91563800       0.96094661       0.72338498E-02
  11927.469       0.91902680       0.96209940       0.44161492E-02
  11927.964       0.92067089       0.96316872       0.39877491E-02
  11928.490       0.92361457       0.96428860       0.48399884E-02
  11928.924       0.92581716       0.96519996       0.52560318E-02
  11929.326       0.92845007       0.96603396       0.59703747E-02
  11929.698       0.93085671       0.96679707       0.61767735E-02
  11930.101       0.93365891       0.96761442       0.89964676E-02
  11930.472       0.93827982       0.96835831       0.10022244E-01
  11930.844       0.94156032       0.96909601       0.78285573E-02
  11931.309       0.94531233       0.97000664       0.89927427E-02
  11931.680       0.94957488       0.97072407       0.99297915E-02
  11932.083       0.95347059       0.97149426       0.88560601E-02
  11932.393       0.95631109       0.97208028       0.11658626E-01
  11932.734       0.96147773       0.97271847       0.12885816E-01
  11933.075       0.96555124       0.97334995       0.11423239E-01
  11933.446       0.97006460       0.97402938       0.12251203E-01
  11933.818       0.97513802       0.97470273       0.86806901E-02
  11934.252       0.97753560       0.97547835       0.87560566E-02
  11934.624       0.98267083       0.97613466       0.11974955E-01
  11935.058       0.98770866       0.97689049       0.11783907E-01
  11935.492       0.99345768       0.97763576       0.10295493E-01
  11935.895       0.99684247       0.97831837       0.80024439E-02
  11936.391        1.0011702       0.97914614       0.56684596E-02
  11936.794        1.0024197       0.97980870       0.37062028E-02
  11937.259        1.0048218       0.98056212       0.65977549E-02
  11937.600        1.0081822       0.98110712       0.88805941E-02
  11938.004        1.0118789       0.98174464       0.82495384E-02
  11938.314        1.0144871       0.98222784       0.90913793E-02
  11938.686        1.0184856       0.98280085       0.72677832E-02
  11940.113        1.0285758       0.98493050       0.54643449E-02
  11941.726        1.0367137       0.98720896       0.48563897E-02
  11943.309        1.0457619       0.98931490       0.40095595E-02
  11944.954        1.0512900       0.99136974       0.41412237E-02
  11946.631        1.0612079       0.99332761       0.22090280E-02
  11948.650        1.0612074       0.99550598       0.77460096E-03
  11950.453        1.0658841       0.99729063       0.27773382E-02
  11952.131        1.0725611       0.99881912      -0.36165382E-04
  11954.245        1.0673950        1.0005683      -0.11327671E-02
  11956.049        1.0697498        1.0019099       0.19305870E-03
  11957.636        1.0695371        1.0029787      -0.15788425E-02
  11959.348        1.0658851        1.0040180      -0.14889420E-02
  11961.402        1.0654698        1.0051141      -0.11030853E-02
  11963.208        1.0632320        1.0059465      -0.11762672E-02
  11965.077        1.0626702        1.0066831      -0.24026435E-02
  11966.947        1.0557172        1.0072975      -0.25343443E-02
  11968.848        1.0545857        1.0078012      -0.16732377E-02
  11970.594        1.0510945        1.0081605      -0.41479565E-02
  11972.809        1.0395894        1.0084801      -0.36613818E-02
  11974.993        1.0366182        1.0086528      -0.28047068E-02
  11976.866        1.0297756        1.0086939      -0.50251966E-02
  11979.207        1.0169021        1.0086137      -0.50135805E-02
  11981.269        1.0092273        1.0084286      -0.36306150E-02
  11983.050        1.0043759        1.0081875      -0.40055072E-02
  11985.144       0.99511837        1.0078132      -0.56147958E-02
  11987.458       0.98110733        1.0072929      -0.47509959E-02
  11989.366       0.97654300        1.0067855      -0.39656729E-02
  11991.525       0.96646422        1.0061326      -0.42291108E-02
  11993.653       0.95995849        1.0054138      -0.22577086E-02
  11995.657       0.95876902        1.0046746      -0.17168129E-02
  11998.100       0.95412449        1.0037002      -0.26642888E-02
  12000.451       0.94785738        1.0026954      -0.17929030E-02
  12002.802       0.94759187        1.0016341      -0.97428838E-03
  12005.154       0.94524130        1.0005248      -0.65521464E-03
  12007.287       0.94655337       0.99948533       0.11468552E-02
  12009.390       0.95202883       0.99843627       0.80711783E-03
  12011.964       0.95243052       0.99712907      -0.24634747E-03
  12014.006       0.95288066       0.99608129      -0.77318973E-04
  12016.457       0.95403251       0.99482019       0.10168471E-02
  12018.720       0.95981044       0.99366090       0.15000909E-02
  12020.921       0.96279007       0.99254599       0.47088194E-03
  12023.689       0.96435426       0.99117317       0.36728196E-03
  12026.081       0.96696454       0.99002375       0.14072774E-02
  12028.852       0.97399548       0.98874827       0.13096528E-02
  12031.309       0.97620774       0.98767910       0.38397500E-03
  12033.452       0.97779504       0.98680248       0.13392871E-02
  12036.100       0.98482279       0.98580198       0.19342341E-02
  12038.591       0.99014729       0.98495516       0.22615528E-02
  12041.084       0.99846265       0.98421033       0.10364722E-02
  12043.514       0.99748263       0.98359354       0.86333252E-03
  12045.882        1.0047663       0.98310591       0.14245357E-02
  12048.820        1.0074841       0.98267062       0.19972594E-03
  12051.412        1.0082972       0.98245589       0.83769564E-03
  12054.384        1.0146490       0.98242142       0.35197432E-03
  12057.010        1.0127388       0.98259329      -0.13467619E-03
  12059.289        1.0161116       0.98290659      -0.50518131E-03
  12062.297        1.0123218       0.98356834      -0.95785030E-03
  12064.672        1.0132073       0.98430185       0.25071937E-03
  12067.461        1.0158870       0.98541470       0.75421376E-04
  12070.124        1.0159986       0.98674407       0.39849554E-03
  12072.884        1.0204465       0.98841127      -0.79984793E-03
  12075.962        1.0137876       0.99063590      -0.13270807E-02
  12078.884        1.0149548       0.99312217      -0.22968062E-03
  12081.774        1.0149587       0.99595736      -0.21778711E-03
  12084.253        1.0161016       0.99870032      -0.97358802E-03
  12087.401        1.0118326        1.0026150      -0.17358879E-02
  12090.041        1.0083960        1.0062850      -0.10701270E-02
  12092.906        1.0082335        1.0106831      -0.20405983E-03
  12095.676        1.0096784        1.0153617      -0.19010189E-04
  12098.766        1.0106707        1.0210936      -0.11213371E-03
