# Athena data file -- Athena version 0.8.056
# Saving 2lfh_ph8_as3_10um_ref_als_cal as normalized mu(E)
# .  Element=As   Edge=K
# Background parameters
# .  E0=11868.000  Eshift=0.000  Rbkg=1.000
# .  Standard=0: None
# .  Kweight=2.0  Edge step=0.158
# .  Fixed step=no    Flatten=yes
# .  Pre-edge range: [ -35.000 : -15.000 ]
# .  Pre-edge line: -2.0815 + 0.00017711 * E
# .  Normalization range: [ 58.605 : 229.112 ]
# .  Post-edge polynomial: 0.58006 + -3.3883e-005 * E + 0 * E^2
# .  Spline range: [ 0.000 : 228.129 ]   Clamps: None/Strong
# Foreward FT parameters
# .  Kweight=0.5   Window=hanning   Phase correction=no
# .  k-range: [ 2.000 : 10.939 ]   dk=1.00
# Backward FT parameters
# .  R-range: [ 1.000 : 3.000 ]
# .  dR=0.00   Window=hanning
# Plotting parameters
# .  Multiplier=1   Y-offset=0.000
# .
# Athena data file -- Athena version 0.8.059
# Saving 2lfh_ph8_as3_10um_as_xafs.001 as mu(E)
# .  Element=As   Edge=K
# Background parameters
# .  E0=11871.200  Eshift=-1.800  Rbkg=1.000
# .  Standard=0: None
# .  Kweight=2.0  Edge step=0.162
# .  Fixed step=no    Flatten=yes
# .  Pre-edge range: [ -144.750 : -30.000 ]
# .  Pre-edge line: 0.079647 + -5.5023e-006 * E
# .  Normalization range: [ 150.000 : 539.140 ]
# .  Post-edge polynomial: 3.8198 + -0.00058889 * E + 2.3754e-008 * E^2
# .  Spline range: [ 0.000 : 639.141 ]   Clamps: None/Strong
# Foreward FT parameters
# .  Kweight=0.5   Window=hanning   Phase correction=no
# .  k-range: [ 2.000 : 10.952 ]   dk=1.00
# Backward FT parameters
# .  R-range: [ 1.000 : 3.000 ]
# .  dR=0.00   Window=hanning
# Plotting parameters
# .  Multiplier=1   Y-offset=0.000
# .
# Epics Scan 1 dimensional scan
# current scan  = 1
# scan dimension= 1
# scan prefix   = 13BMD:
# PV list:
# Storage Ring Current (S:SRcurrentAI.VAL)  = 101.717
# FOE Mono angle readback (13BMA:m17.RBV)  = 9.7144
# Mono Energy drive val (13BMA:E:Energy.VAL)  = 11717.0000
# Mono Energy readback (13BMA:E:E_RBV)  = 11712.0252
# Mono Beam Offset (13BMA:E:height.VAL)  = 20.0000
# I0 sensitivity value (13BMD:A3sens_num.VAL)  = 10
# I0 sensitivity value (13BMD:A3sens_unit.VAL)  = nA/V
# I1 sensitivity value (13BMD:A2sens_num.VAL)  = 1
# I1 sensitivity value (13BMD:A2sens_unit.VAL)  = nA/V
# FOE Mono Yout (13BMA:m10.VAL)  = 10.4366
# FOE Mono Yin (13BMA:m11.VAL)  = 10.6862
# FOE Mono Yup (13BMA:m12.VAL)  = 9.7232
# FOE Mono Cage Y (13BMA:m13.VAL)  = 0.000
# FOE Mono Z (13BMA:m14.VAL)  = 60.189
# FOE Mono angle (13BMA:m17.VAL)  = 9.7144
# BMD Horiz Width (13BMD:BMDHt2.C)  = 7.000
# BMD Horiz Center (13BMD:BMDHt2.D)  = 1.000
# BMD Vertical Width (13BMD:BMDVt2.C)  = 0.300
# BMD Vertical Center (13BMD:BMDVt2.D)  = -17.700
# Sample X (13BMD:m34.VAL)  = 15.233
# Sample Y (height) (13BMD:m33.VAL)  = 70.095
# Sample Z (focus) (13BMD:m35.VAL)  = 96.000
# 13GE2:med:dxp1.PKTM  = 2.00 us
# Scan Regions: EXAFS scan with        3 regions
# E0 =       11867.0
# Start       Stop       Step       Npts       Time   Kspace?
# -150.00    -10.000     5.0000     29.000     2.0000   0
# -10.000     25.000    0.25000     141.00     2.0000   0
# 2.5616     13.000   0.049945     210.00     2.0000   1
# scan began at time: Fri Dec 05 01:23:29 2008
# =============================================
# scan ended at time: Fri Dec 05 01:42:57 2008
# n_points      =      378
# column labels:
# P1 = {Energy} --> 13BMA:E:Energy.VAL
# P2 = {Scaler Count Time} --> 13BMD:scaler1.TP
# P3 = {MCA Count Time} --> 13GE2:med:PresetReal
#------------------------
#  energy norm bkg_norm der_norm
  11825.200       0.10094951E-01   0.10048686E-01  -0.55140255E-03
  11830.200       0.70998285E-02   0.70535521E-02  -0.68505018E-03
  11835.200       0.26528048E-02   0.26065171E-02  -0.83611787E-03
  11840.200      -0.19834642E-02  -0.20297633E-02  -0.42199409E-03
  11845.200      -0.19315916E-02  -0.19779022E-02   0.10915485E-03
  11850.200      -0.79764400E-03  -0.84396602E-03   0.36741667E-03
  11855.200       0.20598948E-02   0.20135613E-02   0.76140013E-04
  11855.450      -0.36338578E-03  -0.40971980E-03   0.27797200E-02
  11855.700       0.35697901E-02   0.35234556E-02   0.57569115E-02
  11855.950       0.27636681E-02   0.27173329E-02  -0.12516265E-02
  11856.200       0.28899285E-02   0.28435928E-02   0.12114301E-02
  11856.450       0.34216957E-02   0.33753594E-02   0.83934149E-02
  11856.700       0.74490849E-02   0.74027481E-02   0.22222642E-02
  11856.950       0.46287909E-02   0.45824534E-02  -0.25036874E-02
  11857.200       0.60891256E-02   0.60427876E-02   0.10831031E-01
  11857.450       0.10512018E-01   0.10465679E-01  -0.28836062E-02
  11857.700       0.45228011E-02   0.44764619E-02   0.31772266E-02
  11857.950       0.12237832E-01   0.12191492E-01   0.90644840E-02
  11858.200       0.94464706E-02   0.94001303E-02  -0.52219008E-02
  11858.450       0.94013863E-02   0.93550454E-02   0.63431621E-02
  11858.700       0.12891965E-01   0.12845624E-01   0.89285616E-02
  11858.950       0.14251225E-01   0.14204883E-01   0.18299697E-02
  11859.200       0.13885973E-01   0.13839631E-01   0.58005128E-02
  11859.450       0.17401962E-01   0.17355619E-01   0.51192649E-02
  11859.700       0.16666668E-01   0.16620325E-01   0.14102668E-01
  11859.950       0.25062285E-01   0.25015941E-01   0.10364634E-01
  11860.200       0.22296557E-01   0.22250212E-01  -0.56003822E-02
  11860.450       0.22020256E-01   0.21973910E-01   0.64165749E-02
  11860.700       0.25781928E-01   0.25735582E-01   0.12043078E-01
  11860.950       0.28561845E-01   0.28515499E-01   0.33837804E-02
  11861.200       0.27619938E-01   0.27573591E-01   0.10234052E-01
  11861.450       0.34120804E-01   0.34074456E-01   0.13892316E-01
  11861.700       0.35166002E-01   0.35119654E-01   0.11484453E-01
  11861.950       0.40358958E-01   0.40312609E-01   0.12800356E-01
  11862.200       0.42118932E-01   0.42072583E-01   0.89030506E-02
  11862.450       0.45194940E-01   0.45148590E-01   0.11817569E-01
  11862.700       0.48538029E-01   0.48491679E-01   0.13936116E-01
  11862.950       0.52764795E-01   0.52718444E-01   0.14042344E-01
  11863.200       0.56165585E-01   0.56119234E-01   0.13543845E-01
  11863.450       0.60121575E-01   0.60075223E-01   0.18308209E-01
  11863.700       0.66110285E-01   0.66063932E-01   0.23090582E-01
  11863.950       0.72663976E-01   0.72617622E-01   0.27791303E-01
  11864.200       0.81206035E-01   0.81159681E-01   0.22017437E-01
  11864.450       0.84623463E-01   0.84577109E-01   0.42654542E-01
  11864.700       0.10437524       0.10432888       0.42320083E-01
  11864.950       0.10761099       0.10756464       0.24709718E-01
  11865.200       0.11779713       0.11775077       0.36371859E-01
  11865.450       0.12736755       0.12732120       0.41399607E-01
  11865.700       0.14028467       0.14023831       0.64335765E-01
  11865.950       0.16231362       0.16226726       0.56649555E-01
  11866.200       0.17105572       0.17100936       0.56397144E-01
  11866.450       0.19294756       0.19290120       0.90902000E-01
  11866.700       0.22043210       0.22038574       0.10733909
  11866.950       0.25125228       0.25120592       0.93384432E-01
  11867.200       0.27115689       0.27111053       0.11708081
  11867.450       0.31484854       0.31480217       0.14698552
  11867.700       0.35099686       0.35095050       0.20398586
  11867.950       0.42558332       0.42553695       0.26661521
  11868.200       0.49608564        1.6631289       0.29169538
  11868.450       0.58469681        1.6520722       0.36079015
  11868.700       0.69273020        1.6411222       0.46046589
  11868.950       0.83548349        1.6302782       0.51419770
  11869.200       0.97270307        1.6195399       0.53841177
  11869.450        1.1286090        1.6089068       0.62099310
  11869.700        1.3106853        1.5983783       0.71330683
  11869.950        1.5167345        1.5879540       0.72743312
  11870.200        1.7064840        1.5776333       0.70693270
  11870.450        1.9013976        1.5674158       0.67861946
  11870.700        2.0757679        1.5573010       0.65578810
  11870.950        2.2582799        1.5472884       0.61114045
  11871.200        2.4083983        1.5373775       0.45818311
  11871.450        2.5078267        1.5275678       0.27561839
  11871.700        2.5587791        1.5178588       0.12160402
  11871.950        2.5745495        1.5082501      -0.16972389E-01
  11872.200        2.5502296        1.4987410      -0.21210072
  11872.450        2.4600097        1.4893312      -0.30834675
  11872.700        2.3834107        1.4800201      -0.34740371
  11872.950        2.2719758        1.4708073      -0.39909043
  11873.200        2.1673014        1.4616922      -0.34822022
  11873.450        2.0834983        1.4526743      -0.32251862
  11873.700        1.9927846        1.4437533      -0.32099590
  11873.950        1.9098085        1.4349285      -0.31230124
  11874.200        1.8238177        1.4261994      -0.22142364
  11874.450        1.7902047        1.4175657      -0.11822958
  11874.700        1.7602671        1.4090267      -0.11665088
  11874.950        1.7275117        1.4005821      -0.10399974
  11875.200        1.7044459        1.3922312      -0.74244536E-01
  11875.450        1.6878530        1.3839737      -0.67046179E-01
  11875.700        1.6686972        1.3758090      -0.89071186E-01
  11875.950        1.6401407        1.3677366      -0.76873350E-01
  11876.200        1.6276106        1.3597560      -0.12045884
  11876.450        1.5753792        1.3518668      -0.16752810
  11876.700        1.5372819        1.3440684      -0.14303847
  11876.950        1.4983529        1.3363603      -0.11606295
  11877.200        1.4749082        1.3287422      -0.79989362E-01
  11877.450        1.4555737        1.3212133      -0.11979120
  11877.700        1.4105094        1.3137734      -0.10526723
  11877.950        1.3990641        1.3064218      -0.51008720E-01
  11878.200        1.3834720        1.2991581      -0.38695191E-01
  11878.450        1.3787152        1.2919818      -0.61068798E-01
  11878.700        1.3509701        1.2848924      -0.78677468E-01
  11878.950        1.3366486        1.2778894      -0.16118828E-01
  11879.200        1.3428843        1.2709723      -0.32382064E-01
  11879.450        1.3197289        1.2641406      -0.52561000E-01
  11879.700        1.3150037        1.2573939      -0.29680913E-01
  11879.950        1.3042764        1.2507316      -0.52181432E-01
  11880.200        1.2873293        1.2441532      -0.18859479E-01
  11880.450        1.2947019        1.2376582      -0.29207270E-01
  11880.700        1.2721341        1.2312462      -0.87257369E-01
  11880.950        1.2479748        1.2249167      -0.37006533E-01
  11881.200        1.2527025        1.2186691      -0.15108788E-01
  11881.450        1.2404377        1.2125030      -0.24561650E-01
  11881.700        1.2400307        1.2064179      -0.80627546E-01
  11881.950        1.1973118        1.2004132      -0.63977262E-01
  11882.200        1.2059490        1.1944886       0.38495057E-01
  11882.450        1.2188913        1.1886434      -0.30271651E-01
  11882.700        1.1901756        1.1828772      -0.61903310E-01
  11882.950        1.1859362        1.1771896      -0.26390425E-01
  11883.200        1.1765104        1.1715800      -0.44223705E-01
  11883.450        1.1625843        1.1660478      -0.42124627E-01
  11883.700        1.1542987        1.1605928      -0.21264969E-01
  11883.950        1.1517032        1.1552142      -0.14856600E-01
  11884.200        1.1468985        1.1499117      -0.76682865E-01
  11884.450        1.1107200        1.1446847      -0.59581493E-01
  11884.700        1.1152045        1.1395328       0.71679940E-03
  11884.950        1.1117791        1.1344555       0.23854739E-02
  11885.200        1.1171699        1.1294522      -0.34438370E-01
  11885.450        1.0937424        1.1245225      -0.56281774E-01
  11885.700        1.0872683        1.1196659      -0.20786652E-01
  11885.950        1.0831211        1.1148819      -0.16903908E-01
  11886.200        1.0787561        1.1101700       0.11471622E-01
  11886.450        1.0900219        1.1055297       0.68764859E-02
  11886.700        1.0831609        1.1009604      -0.49621099E-01
  11886.950        1.0637383        1.0964618      -0.71985825E-01
  11887.200        1.0447291        1.0920334       0.19092553E-01
  11887.450        1.0747787        1.0876745       0.25096929E-01
  11887.700        1.0590310        1.0833848      -0.46591565E-01
  11887.950        1.0501406        1.0791637       0.39411427E-02
  11888.200        1.0618414        1.0750108      -0.18023330E-01
  11888.450        1.0410203        1.0709255      -0.16335490E-01
  11888.700        1.0536379        1.0669074      -0.10436523E-01
  11888.950        1.0360210        1.0629560      -0.36299049E-01
  11889.200        1.0345905        1.0590707      -0.56313857E-02
  11889.450        1.0336318        1.0552511      -0.10303300E-01
  11889.700        1.0296636        1.0514967      -0.22511654E-01
  11889.950        1.0220735        1.0478071      -0.88623901E-02
  11890.200        1.0255194        1.0441816      -0.20842837E-01
  11891.180       0.99587003        1.0305793      -0.19586330E-01
  11892.190       0.98584156        1.0175537      -0.62165893E-02
  11893.210       0.98487924        1.0053892      -0.47215073E-02
  11894.250       0.97803421       0.99397614      -0.93136393E-02
  11895.310       0.96644396       0.98333553      -0.10040713E-01
  11896.390       0.95755745       0.97348539      -0.92235863E-02
  11897.490       0.94751964       0.96444043      -0.11637638E-01
  11898.610       0.93246386       0.95621183      -0.12219255E-01
  11899.740       0.92066529       0.94886788      -0.19291061E-01
  11900.900       0.88753903       0.94228234      -0.19837740E-01
  11902.070       0.87357198       0.93656878      -0.11984287E-01
  11903.270       0.85985741       0.93162481      -0.15402102E-01
  11904.480       0.83647484       0.92752401      -0.16913802E-01
  11905.710       0.81829138       0.92420812      -0.10028119E-01
  11906.960       0.81277871       0.92165888      -0.78642103E-02
  11908.230       0.80013705       0.91985284      -0.48729696E-02
  11909.520       0.80265514       0.91876112       0.20999347E-02
  11910.830       0.80955061       0.91834916       0.52153888E-02
  11912.150       0.82107860       0.91857255       0.55135906E-02
  11913.500       0.82911925       0.91938846       0.36558309E-02
  11914.860       0.83547107       0.92073292       0.74900758E-02
  11916.250       0.85517897       0.92256646       0.12652055E-01
  11917.650       0.87755558       0.92479736       0.71830683E-02
  11919.070       0.88096149       0.92736524       0.32419189E-02
  11920.510       0.89145865       0.93019078       0.10255647E-01
  11921.970       0.91715547       0.93318700       0.70592869E-02
  11923.450       0.91794295       0.93625905       0.99949387E-02
  11924.950       0.95350389       0.93931099       0.13284589E-01
  11926.460       0.96541432       0.94228656      -0.14318911E-02
  11928.000       0.95284432       0.94522244       0.51080357E-02
  11929.550       0.98669977       0.94807818       0.85256892E-02
  11931.130       0.98602644       0.95088841       0.42344556E-02
  11932.720        1.0055279       0.95361538       0.50547658E-02
  11934.330        1.0078844       0.95627510       0.15503661E-03
  11935.960        1.0104129       0.95886558       0.73685916E-02
  11937.610        1.0385337       0.96138489       0.78731277E-02
  11939.280        1.0432557       0.96383120       0.35779553E-02
  11940.970        1.0560940       0.96620278      -0.12390294E-02
  11942.680        1.0432328       0.96849800      -0.28398051E-02
  11944.400        1.0501060       0.97070282      -0.81568858E-03
  11946.150        1.0448053       0.97284144      -0.23534036E-03
  11947.910        1.0539096       0.97488810      -0.37463294E-02
  11949.690        1.0351390       0.97685411      -0.72852578E-02
  11951.490        1.0303706       0.97873838      -0.55620156E-02
  11953.320        1.0180669       0.98054955      -0.13361979E-03
  11955.150        1.0347411       0.98225794      -0.20007650E-02
  11957.010        1.0149885       0.98389170      -0.42920200E-02
  11958.890        1.0223116       0.98544063      -0.32993912E-02
  11960.790        1.0065022       0.98690433      -0.43275836E-02
  11962.700        1.0095023       0.98827558       0.80239257E-03
  11964.640        1.0150146       0.98956863      -0.31809047E-02
  11966.590        1.0012698       0.99077014      -0.60347031E-02
  11968.570       0.99451338       0.99189263      -0.38841492E-02
  11970.560       0.98983501       0.99292510      -0.32593034E-02
  11972.570       0.98570742       0.99387395      -0.30354315E-02
  11974.600       0.98192355       0.99473987      -0.17900974E-02
  11976.650       0.98323741       0.99552371      -0.20037651E-02
  11978.710       0.97848136       0.99622332      -0.57954446E-02
  11980.800       0.96266725       0.99684672      -0.48297782E-02
  11982.910       0.96206945       0.99739171       0.14253909E-02
  11985.030       0.97488265       0.99785793      -0.33092389E-02
  11987.180       0.95243745       0.99825158      -0.77552878E-02
  11989.340       0.94434298       0.99857102       0.11464627E-02
  11991.520       0.96365540       0.99882048       0.13911895E-02
  11993.720       0.95682880       0.99900238      -0.35557248E-02
  11995.940       0.95250148       0.99911940      -0.29487660E-02
  11998.180       0.94851477       0.99917442      -0.41833449E-03
  12000.440       0.95648327       0.99917058       0.16370650E-02
  12002.710       0.96263820       0.99911163      -0.25500338E-03
  12005.010       0.96133787       0.99900065       0.55465496E-03
  12007.330       0.97160960       0.99884167       0.69251344E-03
  12009.660       0.97106394       0.99863978      -0.14918081E-02
  12012.010       0.97029292       0.99839873       0.18644975E-02
  12014.380       0.98694593       0.99812312       0.23500512E-02
  12016.780       0.98885927       0.99781653      -0.32839210E-02
  12019.190       0.97622814       0.99748670       0.30388703E-04
  12021.610       0.99548757       0.99713933       0.28014465E-02
  12024.060       0.99757188       0.99677727       0.95796105E-03
  12026.530        1.0071972       0.99640798      -0.10961939E-02
  12029.010       0.99830664       0.99603931      -0.45169575E-03
  12031.520        1.0114317       0.99567493       0.13665509E-03
  12034.040        1.0057901       0.99532468      -0.50140726E-03
  12036.590        1.0154603       0.99499308       0.27054591E-04
  12039.150        1.0127841       0.99469031      -0.13470555E-02
  12041.730        1.0148224       0.99442293       0.46957236E-03
  12044.330        1.0223642       0.99419919      -0.17205839E-02
  12046.950        1.0120565       0.99402767      -0.26784487E-02
  12049.590        1.0141035       0.99391734       0.84972600E-03
  12052.240        1.0240247       0.99387751      -0.86778695E-03
  12054.920        1.0162172       0.99391754      -0.87034961E-03
  12057.620        1.0261432       0.99404777      -0.13577626E-02
  12060.330        1.0154830       0.99427761      -0.39717066E-02
  12063.060        1.0099570       0.99461809      -0.30907891E-02
  12065.810        1.0044220       0.99508033      -0.20401257E-02
  12068.590        1.0051071       0.99567827       0.64387638E-03
  12071.380        1.0157781       0.99641955       0.29026512E-03
  12074.190        1.0143730       0.99731843      -0.30849890E-02
  12077.010        1.0044499       0.99838361      -0.17639783E-02
  12079.860        1.0111013       0.99963580      -0.14917724E-03
  12082.730        1.0111837        1.0010852      -0.15183617E-02
  12085.610        1.0093177        1.0027397      -0.26730969E-02
  12088.520        1.0021243        1.0046253      -0.21353758E-02
  12091.440        1.0036015        1.0067440      -0.15424895E-02
  12094.380        1.0001530        1.0091171      -0.31627379E-03
  12097.340        1.0094762        1.0117606       0.16664843E-02
